
 ------------------------------------------------------------
     normal          Raman Scattering Plot
 ------------------------------------------------------------
 Excitation wavelength  514.50 nm
 Convolution lineshape is lorentzian  
 FWHM   20.00  1/cm
 ------------------------------------------------------------
 ------------------------------------------------------------
 # of frequencies :     3
 ------------------------------------------------------------
 #  freq [ 1/cm]  S [Ang**4/amu]
 ------------------------------------------------------------
   1  1584.29        1.6779
   2  3674.59      114.9259
   3  3786.71       28.9049
 ------------------------------------------------------------
  1526.62    0.5932E-04
  1528.94    0.6417E-04
  1531.27    0.6964E-04
  1533.59    0.7585E-04
  1535.92    0.8292E-04
  1538.24    0.9102E-04
  1540.56    0.1004E-03
  1542.89    0.1112E-03
  1545.21    0.1239E-03
  1547.54    0.1388E-03
  1549.86    0.1566E-03
  1552.19    0.1779E-03
  1554.51    0.2037E-03
  1556.84    0.2353E-03
  1559.16    0.2744E-03
  1561.49    0.3236E-03
  1563.81    0.3861E-03
  1566.14    0.4666E-03
  1568.46    0.5715E-03
  1570.79    0.7093E-03
  1573.11    0.8899E-03
  1575.44    0.1122E-02
  1577.76    0.1403E-02
  1580.09    0.1700E-02
  1582.41    0.1933E-02
  1584.73    0.1997E-02
  1587.06    0.1859E-02
  1589.38    0.1589E-02
  1591.71    0.1291E-02
  1594.03    0.1027E-02
  1596.36    0.8154E-03
  1598.68    0.6523E-03
  1601.01    0.5281E-03
  1603.33    0.4334E-03
  1605.66    0.3604E-03
  1607.98    0.3035E-03
  1610.31    0.2585E-03
  1612.63    0.2225E-03
  1614.96    0.1933E-03
  1617.28    0.1693E-03
  1619.61    0.1495E-03
  1621.93    0.1329E-03
  1624.26    0.1189E-03
  1626.58    0.1070E-03
  1628.91    0.9672E-04
  1631.23    0.8788E-04
  1633.55    0.8020E-04
  1635.88    0.7348E-04
  1638.20    0.6758E-04
  1640.53    0.6236E-04
  1642.85    0.5772E-04
  1645.18    0.5359E-04
  1647.50    0.4989E-04
  1649.83    0.4657E-04
  1652.15    0.4357E-04
  1654.48    0.4086E-04
  1656.80    0.3840E-04
  1659.13    0.3616E-04
  1661.45    0.3411E-04
  1663.78    0.3224E-04
  1666.10    0.3052E-04
  1668.43    0.2894E-04
  1670.75    0.2749E-04
  1673.08    0.2614E-04
  1675.40    0.2490E-04
  1677.72    0.2374E-04
  1680.05    0.2267E-04
  1682.37    0.2167E-04
  1684.70    0.2074E-04
  1687.02    0.1988E-04
  1689.35    0.1906E-04
  1691.67    0.1830E-04
  1694.00    0.1759E-04
  1696.32    0.1692E-04
  1698.65    0.1629E-04
  1700.97    0.1570E-04
  1703.30    0.1514E-04
  1705.62    0.1462E-04
  1707.95    0.1412E-04
  1710.27    0.1365E-04
  1712.60    0.1321E-04
  1714.92    0.1279E-04
  1717.25    0.1239E-04
  1719.57    0.1201E-04
  1721.89    0.1165E-04
  1724.22    0.1131E-04
  1726.54    0.1098E-04
  1728.87    0.1067E-04
  1731.19    0.1038E-04
  1733.52    0.1010E-04
  1735.84    0.9827E-05
  1738.17    0.9571E-05
  1740.49    0.9327E-05
  1742.82    0.9093E-05
  1745.14    0.8869E-05
  1747.47    0.8654E-05
  1749.79    0.8449E-05
  1752.12    0.8253E-05
  1754.44    0.8064E-05
  1756.77    0.7883E-05
  1759.09    0.7709E-05
  1761.42    0.7543E-05
  1763.74    0.7382E-05
  1766.06    0.7228E-05
  1768.39    0.7080E-05
  1770.71    0.6938E-05
  1773.04    0.6801E-05
  1775.36    0.6668E-05
  1777.69    0.6541E-05
  1780.01    0.6419E-05
  1782.34    0.6300E-05
  1784.66    0.6186E-05
  1786.99    0.6076E-05
  1789.31    0.5970E-05
  1791.64    0.5867E-05
  1793.96    0.5768E-05
  1796.29    0.5672E-05
  1798.61    0.5580E-05
  1800.94    0.5490E-05
  1803.26    0.5404E-05
  1805.59    0.5320E-05
  1807.91    0.5239E-05
  1810.23    0.5160E-05
  1812.56    0.5084E-05
  1814.88    0.5011E-05
  1817.21    0.4939E-05
  1819.53    0.4870E-05
  1821.86    0.4803E-05
  1824.18    0.4738E-05
  1826.51    0.4675E-05
  1828.83    0.4614E-05
  1831.16    0.4555E-05
  1833.48    0.4497E-05
  1835.81    0.4441E-05
  1838.13    0.4387E-05
  1840.46    0.4334E-05
  1842.78    0.4283E-05
  1845.11    0.4234E-05
  1847.43    0.4185E-05
  1849.76    0.4138E-05
  1852.08    0.4093E-05
  1854.40    0.4048E-05
  1856.73    0.4005E-05
  1859.05    0.3963E-05
  1861.38    0.3922E-05
  1863.70    0.3883E-05
  1866.03    0.3844E-05
  1868.35    0.3807E-05
  1870.68    0.3770E-05
  1873.00    0.3734E-05
  1875.33    0.3700E-05
  1877.65    0.3666E-05
  1879.98    0.3633E-05
  1882.30    0.3601E-05
  1884.63    0.3570E-05
  1886.95    0.3539E-05
  1889.28    0.3510E-05
  1891.60    0.3481E-05
  1893.93    0.3453E-05
  1896.25    0.3426E-05
  1898.58    0.3399E-05
  1900.90    0.3373E-05
  1903.22    0.3348E-05
  1905.55    0.3323E-05
  1907.87    0.3299E-05
  1910.20    0.3275E-05
  1912.52    0.3252E-05
  1914.85    0.3230E-05
  1917.17    0.3208E-05
  1919.50    0.3187E-05
  1921.82    0.3166E-05
  1924.15    0.3146E-05
  1926.47    0.3127E-05
  1928.80    0.3107E-05
  1931.12    0.3089E-05
  1933.45    0.3070E-05
  1935.77    0.3053E-05
  1938.10    0.3035E-05
  1940.42    0.3018E-05
  1942.75    0.3002E-05
  1945.07    0.2986E-05
  1947.39    0.2970E-05
  1949.72    0.2955E-05
  1952.04    0.2940E-05
  1954.37    0.2925E-05
  1956.69    0.2911E-05
  1959.02    0.2897E-05
  1961.34    0.2883E-05
  1963.67    0.2870E-05
  1965.99    0.2857E-05
  1968.32    0.2845E-05
  1970.64    0.2833E-05
  1972.97    0.2821E-05
  1975.29    0.2809E-05
  1977.62    0.2798E-05
  1979.94    0.2787E-05
  1982.27    0.2776E-05
  1984.59    0.2766E-05
  1986.92    0.2755E-05
  1989.24    0.2745E-05
  1991.56    0.2736E-05
  1993.89    0.2726E-05
  1996.21    0.2717E-05
  1998.54    0.2708E-05
  2000.86    0.2699E-05
  2003.19    0.2691E-05
  2005.51    0.2683E-05
  2007.84    0.2675E-05
  2010.16    0.2667E-05
  2012.49    0.2659E-05
  2014.81    0.2652E-05
  2017.14    0.2645E-05
  2019.46    0.2638E-05
  2021.79    0.2631E-05
  2024.11    0.2624E-05
  2026.44    0.2618E-05
  2028.76    0.2612E-05
  2031.09    0.2606E-05
  2033.41    0.2600E-05
  2035.73    0.2594E-05
  2038.06    0.2589E-05
  2040.38    0.2583E-05
  2042.71    0.2578E-05
  2045.03    0.2573E-05
  2047.36    0.2568E-05
  2049.68    0.2564E-05
  2052.01    0.2559E-05
  2054.33    0.2555E-05
  2056.66    0.2551E-05
  2058.98    0.2547E-05
  2061.31    0.2543E-05
  2063.63    0.2539E-05
  2065.96    0.2535E-05
  2068.28    0.2532E-05
  2070.61    0.2529E-05
  2072.93    0.2525E-05
  2075.26    0.2522E-05
  2077.58    0.2520E-05
  2079.90    0.2517E-05
  2082.23    0.2514E-05
  2084.55    0.2512E-05
  2086.88    0.2509E-05
  2089.20    0.2507E-05
  2091.53    0.2505E-05
  2093.85    0.2503E-05
  2096.18    0.2501E-05
  2098.50    0.2499E-05
  2100.83    0.2497E-05
  2103.15    0.2496E-05
  2105.48    0.2494E-05
  2107.80    0.2493E-05
  2110.13    0.2492E-05
  2112.45    0.2490E-05
  2114.78    0.2489E-05
  2117.10    0.2488E-05
  2119.43    0.2488E-05
  2121.75    0.2487E-05
  2124.07    0.2486E-05
  2126.40    0.2486E-05
  2128.72    0.2485E-05
  2131.05    0.2485E-05
  2133.37    0.2485E-05
  2135.70    0.2485E-05
  2138.02    0.2485E-05
  2140.35    0.2485E-05
  2142.67    0.2485E-05
  2145.00    0.2485E-05
  2147.32    0.2485E-05
  2149.65    0.2486E-05
  2151.97    0.2486E-05
  2154.30    0.2487E-05
  2156.62    0.2488E-05
  2158.95    0.2488E-05
  2161.27    0.2489E-05
  2163.60    0.2490E-05
  2165.92    0.2491E-05
  2168.25    0.2492E-05
  2170.57    0.2493E-05
  2172.89    0.2495E-05
  2175.22    0.2496E-05
  2177.54    0.2497E-05
  2179.87    0.2499E-05
  2182.19    0.2501E-05
  2184.52    0.2502E-05
  2186.84    0.2504E-05
  2189.17    0.2506E-05
  2191.49    0.2508E-05
  2193.82    0.2510E-05
  2196.14    0.2512E-05
  2198.47    0.2514E-05
  2200.79    0.2516E-05
  2203.12    0.2518E-05
  2205.44    0.2521E-05
  2207.77    0.2523E-05
  2210.09    0.2526E-05
  2212.42    0.2528E-05
  2214.74    0.2531E-05
  2217.06    0.2533E-05
  2219.39    0.2536E-05
  2221.71    0.2539E-05
  2224.04    0.2542E-05
  2226.36    0.2545E-05
  2228.69    0.2548E-05
  2231.01    0.2551E-05
  2233.34    0.2554E-05
  2235.66    0.2558E-05
  2237.99    0.2561E-05
  2240.31    0.2564E-05
  2242.64    0.2568E-05
  2244.96    0.2571E-05
  2247.29    0.2575E-05
  2249.61    0.2579E-05
  2251.94    0.2582E-05
  2254.26    0.2586E-05
  2256.59    0.2590E-05
  2258.91    0.2594E-05
  2261.23    0.2598E-05
  2263.56    0.2602E-05
  2265.88    0.2606E-05
  2268.21    0.2610E-05
  2270.53    0.2614E-05
  2272.86    0.2619E-05
  2275.18    0.2623E-05
  2277.51    0.2628E-05
  2279.83    0.2632E-05
  2282.16    0.2637E-05
  2284.48    0.2641E-05
  2286.81    0.2646E-05
  2289.13    0.2651E-05
  2291.46    0.2656E-05
  2293.78    0.2661E-05
  2296.11    0.2665E-05
  2298.43    0.2671E-05
  2300.76    0.2676E-05
  2303.08    0.2681E-05
  2305.40    0.2686E-05
  2307.73    0.2691E-05
  2310.05    0.2697E-05
  2312.38    0.2702E-05
  2314.70    0.2707E-05
  2317.03    0.2713E-05
  2319.35    0.2718E-05
  2321.68    0.2724E-05
  2324.00    0.2730E-05
  2326.33    0.2736E-05
  2328.65    0.2741E-05
  2330.98    0.2747E-05
  2333.30    0.2753E-05
  2335.63    0.2759E-05
  2337.95    0.2765E-05
  2340.28    0.2772E-05
  2342.60    0.2778E-05
  2344.93    0.2784E-05
  2347.25    0.2790E-05
  2349.57    0.2797E-05
  2351.90    0.2803E-05
  2354.22    0.2810E-05
  2356.55    0.2816E-05
  2358.87    0.2823E-05
  2361.20    0.2830E-05
  2363.52    0.2836E-05
  2365.85    0.2843E-05
  2368.17    0.2850E-05
  2370.50    0.2857E-05
  2372.82    0.2864E-05
  2375.15    0.2871E-05
  2377.47    0.2878E-05
  2379.80    0.2886E-05
  2382.12    0.2893E-05
  2384.45    0.2900E-05
  2386.77    0.2908E-05
  2389.10    0.2915E-05
  2391.42    0.2923E-05
  2393.74    0.2930E-05
  2396.07    0.2938E-05
  2398.39    0.2946E-05
  2400.72    0.2954E-05
  2403.04    0.2961E-05
  2405.37    0.2969E-05
  2407.69    0.2977E-05
  2410.02    0.2986E-05
  2412.34    0.2994E-05
  2414.67    0.3002E-05
  2416.99    0.3010E-05
  2419.32    0.3019E-05
  2421.64    0.3027E-05
  2423.97    0.3035E-05
  2426.29    0.3044E-05
  2428.62    0.3053E-05
  2430.94    0.3061E-05
  2433.27    0.3070E-05
  2435.59    0.3079E-05
  2437.91    0.3088E-05
  2440.24    0.3097E-05
  2442.56    0.3106E-05
  2444.89    0.3115E-05
  2447.21    0.3124E-05
  2449.54    0.3133E-05
  2451.86    0.3143E-05
  2454.19    0.3152E-05
  2456.51    0.3162E-05
  2458.84    0.3171E-05
  2461.16    0.3181E-05
  2463.49    0.3190E-05
  2465.81    0.3200E-05
  2468.14    0.3210E-05
  2470.46    0.3220E-05
  2472.79    0.3230E-05
  2475.11    0.3240E-05
  2477.44    0.3250E-05
  2479.76    0.3260E-05
  2482.09    0.3271E-05
  2484.41    0.3281E-05
  2486.73    0.3291E-05
  2489.06    0.3302E-05
  2491.38    0.3313E-05
  2493.71    0.3323E-05
  2496.03    0.3334E-05
  2498.36    0.3345E-05
  2500.68    0.3356E-05
  2503.01    0.3367E-05
  2505.33    0.3378E-05
  2507.66    0.3389E-05
  2509.98    0.3400E-05
  2512.31    0.3412E-05
  2514.63    0.3423E-05
  2516.96    0.3434E-05
  2519.28    0.3446E-05
  2521.61    0.3458E-05
  2523.93    0.3469E-05
  2526.26    0.3481E-05
  2528.58    0.3493E-05
  2530.90    0.3505E-05
  2533.23    0.3517E-05
  2535.55    0.3530E-05
  2537.88    0.3542E-05
  2540.20    0.3554E-05
  2542.53    0.3567E-05
  2544.85    0.3579E-05
  2547.18    0.3592E-05
  2549.50    0.3604E-05
  2551.83    0.3617E-05
  2554.15    0.3630E-05
  2556.48    0.3643E-05
  2558.80    0.3656E-05
  2561.13    0.3669E-05
  2563.45    0.3683E-05
  2565.78    0.3696E-05
  2568.10    0.3710E-05
  2570.43    0.3723E-05
  2572.75    0.3737E-05
  2575.07    0.3751E-05
  2577.40    0.3764E-05
  2579.72    0.3778E-05
  2582.05    0.3792E-05
  2584.37    0.3807E-05
  2586.70    0.3821E-05
  2589.02    0.3835E-05
  2591.35    0.3850E-05
  2593.67    0.3864E-05
  2596.00    0.3879E-05
  2598.32    0.3894E-05
  2600.65    0.3909E-05
  2602.97    0.3924E-05
  2605.30    0.3939E-05
  2607.62    0.3954E-05
  2609.95    0.3969E-05
  2612.27    0.3985E-05
  2614.60    0.4000E-05
  2616.92    0.4016E-05
  2619.24    0.4032E-05
  2621.57    0.4048E-05
  2623.89    0.4064E-05
  2626.22    0.4080E-05
  2628.54    0.4096E-05
  2630.87    0.4112E-05
  2633.19    0.4129E-05
  2635.52    0.4146E-05
  2637.84    0.4162E-05
  2640.17    0.4179E-05
  2642.49    0.4196E-05
  2644.82    0.4213E-05
  2647.14    0.4230E-05
  2649.47    0.4248E-05
  2651.79    0.4265E-05
  2654.12    0.4283E-05
  2656.44    0.4300E-05
  2658.77    0.4318E-05
  2661.09    0.4336E-05
  2663.41    0.4354E-05
  2665.74    0.4373E-05
  2668.06    0.4391E-05
  2670.39    0.4410E-05
  2672.71    0.4428E-05
  2675.04    0.4447E-05
  2677.36    0.4466E-05
  2679.69    0.4485E-05
  2682.01    0.4504E-05
  2684.34    0.4524E-05
  2686.66    0.4543E-05
  2688.99    0.4563E-05
  2691.31    0.4583E-05
  2693.64    0.4602E-05
  2695.96    0.4623E-05
  2698.29    0.4643E-05
  2700.61    0.4663E-05
  2702.94    0.4684E-05
  2705.26    0.4704E-05
  2707.58    0.4725E-05
  2709.91    0.4746E-05
  2712.23    0.4767E-05
  2714.56    0.4789E-05
  2716.88    0.4810E-05
  2719.21    0.4832E-05
  2721.53    0.4854E-05
  2723.86    0.4876E-05
  2726.18    0.4898E-05
  2728.51    0.4920E-05
  2730.83    0.4943E-05
  2733.16    0.4965E-05
  2735.48    0.4988E-05
  2737.81    0.5011E-05
  2740.13    0.5034E-05
  2742.46    0.5058E-05
  2744.78    0.5081E-05
  2747.11    0.5105E-05
  2749.43    0.5129E-05
  2751.76    0.5153E-05
  2754.08    0.5177E-05
  2756.40    0.5202E-05
  2758.73    0.5227E-05
  2761.05    0.5251E-05
  2763.38    0.5277E-05
  2765.70    0.5302E-05
  2768.03    0.5327E-05
  2770.35    0.5353E-05
  2772.68    0.5379E-05
  2775.00    0.5405E-05
  2777.33    0.5431E-05
  2779.65    0.5458E-05
  2781.98    0.5484E-05
  2784.30    0.5511E-05
  2786.63    0.5538E-05
  2788.95    0.5566E-05
  2791.28    0.5593E-05
  2793.60    0.5621E-05
  2795.93    0.5649E-05
  2798.25    0.5677E-05
  2800.57    0.5706E-05
  2802.90    0.5735E-05
  2805.22    0.5763E-05
  2807.55    0.5793E-05
  2809.87    0.5822E-05
  2812.20    0.5852E-05
  2814.52    0.5882E-05
  2816.85    0.5912E-05
  2819.17    0.5942E-05
  2821.50    0.5973E-05
  2823.82    0.6004E-05
  2826.15    0.6035E-05
  2828.47    0.6066E-05
  2830.80    0.6098E-05
  2833.12    0.6130E-05
  2835.45    0.6162E-05
  2837.77    0.6195E-05
  2840.10    0.6227E-05
  2842.42    0.6260E-05
  2844.74    0.6294E-05
  2847.07    0.6327E-05
  2849.39    0.6361E-05
  2851.72    0.6395E-05
  2854.04    0.6430E-05
  2856.37    0.6464E-05
  2858.69    0.6499E-05
  2861.02    0.6535E-05
  2863.34    0.6571E-05
  2865.67    0.6606E-05
  2867.99    0.6643E-05
  2870.32    0.6679E-05
  2872.64    0.6716E-05
  2874.97    0.6753E-05
  2877.29    0.6791E-05
  2879.62    0.6829E-05
  2881.94    0.6867E-05
  2884.27    0.6906E-05
  2886.59    0.6945E-05
  2888.91    0.6984E-05
  2891.24    0.7024E-05
  2893.56    0.7063E-05
  2895.89    0.7104E-05
  2898.21    0.7144E-05
  2900.54    0.7186E-05
  2902.86    0.7227E-05
  2905.19    0.7269E-05
  2907.51    0.7311E-05
  2909.84    0.7353E-05
  2912.16    0.7396E-05
  2914.49    0.7440E-05
  2916.81    0.7483E-05
  2919.14    0.7528E-05
  2921.46    0.7572E-05
  2923.79    0.7617E-05
  2926.11    0.7662E-05
  2928.44    0.7708E-05
  2930.76    0.7755E-05
  2933.08    0.7801E-05
  2935.41    0.7848E-05
  2937.73    0.7896E-05
  2940.06    0.7944E-05
  2942.38    0.7992E-05
  2944.71    0.8041E-05
  2947.03    0.8091E-05
  2949.36    0.8140E-05
  2951.68    0.8191E-05
  2954.01    0.8242E-05
  2956.33    0.8293E-05
  2958.66    0.8345E-05
  2960.98    0.8397E-05
  2963.31    0.8450E-05
  2965.63    0.8503E-05
  2967.96    0.8557E-05
  2970.28    0.8611E-05
  2972.61    0.8666E-05
  2974.93    0.8722E-05
  2977.25    0.8778E-05
  2979.58    0.8834E-05
  2981.90    0.8891E-05
  2984.23    0.8949E-05
  2986.55    0.9007E-05
  2988.88    0.9066E-05
  2991.20    0.9126E-05
  2993.53    0.9186E-05
  2995.85    0.9246E-05
  2998.18    0.9308E-05
  3000.50    0.9370E-05
  3002.83    0.9432E-05
  3005.15    0.9495E-05
  3007.48    0.9559E-05
  3009.80    0.9624E-05
  3012.13    0.9689E-05
  3014.45    0.9755E-05
  3016.78    0.9821E-05
  3019.10    0.9889E-05
  3021.43    0.9957E-05
  3023.75    0.1003E-04
  3026.07    0.1009E-04
  3028.40    0.1016E-04
  3030.72    0.1024E-04
  3033.05    0.1031E-04
  3035.37    0.1038E-04
  3037.70    0.1045E-04
  3040.02    0.1053E-04
  3042.35    0.1060E-04
  3044.67    0.1068E-04
  3047.00    0.1075E-04
  3049.32    0.1083E-04
  3051.65    0.1091E-04
  3053.97    0.1099E-04
  3056.30    0.1107E-04
  3058.62    0.1115E-04
  3060.95    0.1123E-04
  3063.27    0.1131E-04
  3065.60    0.1140E-04
  3067.92    0.1148E-04
  3070.24    0.1157E-04
  3072.57    0.1165E-04
  3074.89    0.1174E-04
  3077.22    0.1183E-04
  3079.54    0.1192E-04
  3081.87    0.1201E-04
  3084.19    0.1210E-04
  3086.52    0.1219E-04
  3088.84    0.1229E-04
  3091.17    0.1238E-04
  3093.49    0.1248E-04
  3095.82    0.1258E-04
  3098.14    0.1267E-04
  3100.47    0.1277E-04
  3102.79    0.1287E-04
  3105.12    0.1298E-04
  3107.44    0.1308E-04
  3109.77    0.1318E-04
  3112.09    0.1329E-04
  3114.41    0.1340E-04
  3116.74    0.1350E-04
  3119.06    0.1361E-04
  3121.39    0.1373E-04
  3123.71    0.1384E-04
  3126.04    0.1395E-04
  3128.36    0.1407E-04
  3130.69    0.1418E-04
  3133.01    0.1430E-04
  3135.34    0.1442E-04
  3137.66    0.1454E-04
  3139.99    0.1466E-04
  3142.31    0.1479E-04
  3144.64    0.1491E-04
  3146.96    0.1504E-04
  3149.29    0.1517E-04
  3151.61    0.1530E-04
  3153.94    0.1544E-04
  3156.26    0.1557E-04
  3158.58    0.1571E-04
  3160.91    0.1584E-04
  3163.23    0.1598E-04
  3165.56    0.1613E-04
  3167.88    0.1627E-04
  3170.21    0.1641E-04
  3172.53    0.1656E-04
  3174.86    0.1671E-04
  3177.18    0.1686E-04
  3179.51    0.1702E-04
  3181.83    0.1717E-04
  3184.16    0.1733E-04
  3186.48    0.1749E-04
  3188.81    0.1765E-04
  3191.13    0.1782E-04
  3193.46    0.1799E-04
  3195.78    0.1815E-04
  3198.11    0.1833E-04
  3200.43    0.1850E-04
  3202.75    0.1868E-04
  3205.08    0.1886E-04
  3207.40    0.1904E-04
  3209.73    0.1922E-04
  3212.05    0.1941E-04
  3214.38    0.1960E-04
  3216.70    0.1980E-04
  3219.03    0.1999E-04
  3221.35    0.2019E-04
  3223.68    0.2039E-04
  3226.00    0.2060E-04
  3228.33    0.2081E-04
  3230.65    0.2102E-04
  3232.98    0.2123E-04
  3235.30    0.2145E-04
  3237.63    0.2167E-04
  3239.95    0.2190E-04
  3242.28    0.2213E-04
  3244.60    0.2236E-04
  3246.92    0.2260E-04
  3249.25    0.2284E-04
  3251.57    0.2308E-04
  3253.90    0.2333E-04
  3256.22    0.2358E-04
  3258.55    0.2384E-04
  3260.87    0.2410E-04
  3263.20    0.2436E-04
  3265.52    0.2463E-04
  3267.85    0.2490E-04
  3270.17    0.2518E-04
  3272.50    0.2546E-04
  3274.82    0.2575E-04
  3277.15    0.2604E-04
  3279.47    0.2634E-04
  3281.80    0.2664E-04
  3284.12    0.2695E-04
  3286.45    0.2726E-04
  3288.77    0.2758E-04
  3291.10    0.2791E-04
  3293.42    0.2824E-04
  3295.74    0.2858E-04
  3298.07    0.2892E-04
  3300.39    0.2927E-04
  3302.72    0.2962E-04
  3305.04    0.2998E-04
  3307.37    0.3035E-04
  3309.69    0.3073E-04
  3312.02    0.3111E-04
  3314.34    0.3150E-04
  3316.67    0.3190E-04
  3318.99    0.3230E-04
  3321.32    0.3272E-04
  3323.64    0.3314E-04
  3325.97    0.3357E-04
  3328.29    0.3400E-04
  3330.62    0.3445E-04
  3332.94    0.3490E-04
  3335.27    0.3537E-04
  3337.59    0.3584E-04
  3339.91    0.3633E-04
  3342.24    0.3682E-04
  3344.56    0.3732E-04
  3346.89    0.3784E-04
  3349.21    0.3836E-04
  3351.54    0.3890E-04
  3353.86    0.3945E-04
  3356.19    0.4000E-04
  3358.51    0.4058E-04
  3360.84    0.4116E-04
  3363.16    0.4176E-04
  3365.49    0.4237E-04
  3367.81    0.4299E-04
  3370.14    0.4363E-04
  3372.46    0.4428E-04
  3374.79    0.4494E-04
  3377.11    0.4563E-04
  3379.44    0.4632E-04
  3381.76    0.4704E-04
  3384.08    0.4777E-04
  3386.41    0.4852E-04
  3388.73    0.4928E-04
  3391.06    0.5007E-04
  3393.38    0.5087E-04
  3395.71    0.5169E-04
  3398.03    0.5253E-04
  3400.36    0.5340E-04
  3402.68    0.5429E-04
  3405.01    0.5519E-04
  3407.33    0.5613E-04
  3409.66    0.5708E-04
  3411.98    0.5806E-04
  3414.31    0.5907E-04
  3416.63    0.6010E-04
  3418.96    0.6116E-04
  3421.28    0.6225E-04
  3423.61    0.6337E-04
  3425.93    0.6452E-04
  3428.25    0.6570E-04
  3430.58    0.6692E-04
  3432.90    0.6816E-04
  3435.23    0.6945E-04
  3437.55    0.7077E-04
  3439.88    0.7213E-04
  3442.20    0.7353E-04
  3444.53    0.7497E-04
  3446.85    0.7646E-04
  3449.18    0.7799E-04
  3451.50    0.7956E-04
  3453.83    0.8119E-04
  3456.15    0.8287E-04
  3458.48    0.8460E-04
  3460.80    0.8638E-04
  3463.13    0.8823E-04
  3465.45    0.9013E-04
  3467.78    0.9209E-04
  3470.10    0.9413E-04
  3472.42    0.9623E-04
  3474.75    0.9840E-04
  3477.07    0.1006E-03
  3479.40    0.1030E-03
  3481.72    0.1054E-03
  3484.05    0.1079E-03
  3486.37    0.1105E-03
  3488.70    0.1131E-03
  3491.02    0.1159E-03
  3493.35    0.1188E-03
  3495.67    0.1218E-03
  3498.00    0.1249E-03
  3500.32    0.1282E-03
  3502.65    0.1315E-03
  3504.97    0.1350E-03
  3507.30    0.1387E-03
  3509.62    0.1425E-03
  3511.95    0.1464E-03
  3514.27    0.1505E-03
  3516.59    0.1548E-03
  3518.92    0.1593E-03
  3521.24    0.1640E-03
  3523.57    0.1689E-03
  3525.89    0.1741E-03
  3528.22    0.1794E-03
  3530.54    0.1851E-03
  3532.87    0.1910E-03
  3535.19    0.1972E-03
  3537.52    0.2037E-03
  3539.84    0.2105E-03
  3542.17    0.2177E-03
  3544.49    0.2253E-03
  3546.82    0.2332E-03
  3549.14    0.2416E-03
  3551.47    0.2505E-03
  3553.79    0.2599E-03
  3556.12    0.2698E-03
  3558.44    0.2803E-03
  3560.77    0.2915E-03
  3563.09    0.3033E-03
  3565.41    0.3159E-03
  3567.74    0.3293E-03
  3570.06    0.3435E-03
  3572.39    0.3588E-03
  3574.71    0.3750E-03
  3577.04    0.3924E-03
  3579.36    0.4111E-03
  3581.69    0.4312E-03
  3584.01    0.4527E-03
  3586.34    0.4760E-03
  3588.66    0.5011E-03
  3590.99    0.5283E-03
  3593.31    0.5577E-03
  3595.64    0.5897E-03
  3597.96    0.6246E-03
  3600.29    0.6627E-03
  3602.61    0.7044E-03
  3604.94    0.7502E-03
  3607.26    0.8007E-03
  3609.58    0.8565E-03
  3611.91    0.9183E-03
  3614.23    0.9871E-03
  3616.56    0.1064E-02
  3618.88    0.1150E-02
  3621.21    0.1247E-02
  3623.53    0.1357E-02
  3625.86    0.1483E-02
  3628.18    0.1626E-02
  3630.51    0.1791E-02
  3632.83    0.1982E-02
  3635.16    0.2205E-02
  3637.48    0.2467E-02
  3639.81    0.2778E-02
  3642.13    0.3151E-02
  3644.46    0.3601E-02
  3646.78    0.4151E-02
  3649.11    0.4832E-02
  3651.43    0.5684E-02
  3653.75    0.6766E-02
  3656.08    0.8156E-02
  3658.40    0.9964E-02
  3660.73    0.1234E-01
  3663.05    0.1545E-01
  3665.38    0.1947E-01
  3667.70    0.2440E-01
  3670.03    0.2976E-01
  3672.35    0.3423E-01
  3674.68    0.3594E-01
  3677.00    0.3397E-01
  3679.33    0.2937E-01
  3681.65    0.2401E-01
  3683.98    0.1915E-01
  3686.30    0.1521E-01
  3688.63    0.1216E-01
  3690.95    0.9848E-02
  3693.28    0.8083E-02
  3695.60    0.6727E-02
  3697.92    0.5672E-02
  3700.25    0.4842E-02
  3702.57    0.4180E-02
  3704.90    0.3647E-02
  3707.22    0.3212E-02
  3709.55    0.2854E-02
  3711.87    0.2557E-02
  3714.20    0.2308E-02
  3716.52    0.2100E-02
  3718.85    0.1923E-02
  3721.17    0.1774E-02
  3723.50    0.1647E-02
  3725.82    0.1540E-02
  3728.15    0.1450E-02
  3730.47    0.1374E-02
  3732.80    0.1312E-02
  3735.12    0.1261E-02
  3737.45    0.1222E-02
  3739.77    0.1194E-02
  3742.09    0.1177E-02
  3744.42    0.1172E-02
  3746.74    0.1178E-02
  3749.07    0.1196E-02
  3751.39    0.1230E-02
  3753.72    0.1280E-02
  3756.04    0.1351E-02
  3758.37    0.1446E-02
  3760.69    0.1573E-02
  3763.02    0.1740E-02
  3765.34    0.1959E-02
  3767.67    0.2249E-02
  3769.99    0.2633E-02
  3772.32    0.3142E-02
  3774.64    0.3819E-02
  3776.97    0.4705E-02
  3779.29    0.5814E-02
  3781.62    0.7067E-02
  3783.94    0.8201E-02
  3786.26    0.8778E-02
  3788.59    0.8492E-02
  3790.91    0.7493E-02
  3793.24    0.6218E-02
  3795.56    0.5013E-02
  3797.89    0.4016E-02
  3800.21    0.3239E-02
  3802.54    0.2645E-02
  3804.86    0.2191E-02
  3807.19    0.1841E-02
  3809.51    0.1568E-02
  3811.84    0.1353E-02
  3814.16    0.1180E-02
  3816.49    0.1040E-02
  3818.81    0.9243E-03
  3821.14    0.8284E-03
  3823.46    0.7477E-03
  3825.79    0.6793E-03
  3828.11    0.6207E-03
  3830.44    0.5701E-03
  3832.76    0.5260E-03
  3835.08    0.4875E-03
  3837.41    0.4535E-03
  3839.73    0.4233E-03
  3842.06    0.3965E-03
  3844.38    0.3724E-03
  3846.71    0.3507E-03
  3849.03    0.3311E-03
